Raman Shift ; Dark Subtracted
176 ; 778.91
180 ; 784.38
184 ; 740.05
188 ; 744.15
192 ; 747.83
196 ; 765.07
200 ; 800.18
204 ; 761.44
208 ; 747.82
212 ; 773.27
216 ; 758.41
220 ; 800.84
224 ; 783.44
228 ; 739.58
232 ; 689.94
236 ; 600.99
240 ; 547.17
244 ; 493.82
248 ; 443.90
252 ; 428.69
256 ; 411.94
260 ; 393.19
264 ; 375.42
268 ; 365.47
272 ; 367.89
276 ; 371.79
280 ; 377.12
284 ; 371.93
288 ; 389.79
292 ; 384.20
296 ; 381.71
300 ; 389.10
304 ; 398.99
308 ; 416.72
312 ; 430.56
316 ; 429.38
320 ; 425.84
324 ; 422.91
328 ; 411.04
332 ; 399.26
336 ; 423.58
340 ; 424.87
344 ; 438.63
348 ; 452.77
352 ; 470.29
356 ; 482.09
360 ; 492.53
364 ; 459.79
368 ; 445.74
372 ; 430.10
376 ; 404.73
380 ; 419.00
384 ; 401.78
388 ; 392.50
392 ; 382.70
396 ; 386.90
400 ; 371.84
404 ; 387.03
408 ; 376.37
412 ; 369.92
416 ; 347.97
420 ; 350.42
424 ; 345.54
428 ; 350.43
432 ; 340.68
436 ; 334.23
440 ; 334.91
444 ; 307.67
448 ; 319.34
452 ; 332.28
456 ; 311.58
460 ; 318.11
464 ; 306.48
468 ; 316.89
472 ; 304.13
476 ; 328.62
480 ; 292.37
484 ; 310.06
488 ; 310.52
492 ; 301.88
496 ; 281.18
500 ; 277.97
504 ; 264.75
508 ; 274.10
512 ; 274.96
516 ; 282.97
520 ; 268.75
524 ; 245.83
528 ; 248.89
532 ; 269.62
536 ; 269.33
540 ; 264.61
544 ; 271.12
548 ; 263.81
552 ; 266.98
556 ; 275.49
560 ; 240.88
564 ; 242.42
568 ; 250.83
572 ; 247.61
576 ; 252.75
580 ; 255.52
584 ; 231.55
588 ; 242.84
592 ; 232.87
596 ; 250.02
600 ; 248.81
604 ; 237.96
608 ; 233.64
612 ; 227.19
616 ; 236.73
620 ; 245.65
624 ; 244.05
628 ; 239.03
632 ; 250.10
636 ; 255.02
640 ; 238.19
644 ; 252.50
648 ; 256.53
652 ; 255.74
656 ; 251.74
660 ; 274.08
664 ; 266.90
668 ; 238.63
672 ; 258.62
676 ; 277.49
680 ; 269.85
684 ; 261.29
688 ; 267.53
692 ; 280.83
696 ; 278.66
700 ; 302.00
704 ; 301.71
708 ; 316.61
712 ; 347.87
716 ; 389.01
720 ; 459.70
724 ; 504.39
728 ; 538.68
732 ; 532.00
736 ; 494.41
740 ; 413.57
744 ; 325.57
748 ; 297.82
752 ; 236.35
756 ; 233.12
760 ; 232.83
764 ; 221.31
768 ; 234.78
772 ; 223.12
776 ; 220.83
780 ; 235.43
784 ; 223.31
788 ; 222.04
792 ; 199.12
796 ; 193.37
800 ; 229.59
804 ; 241.57
808 ; 227.34
812 ; 235.23
816 ; 238.70
820 ; 226.02
824 ; 225.32
828 ; 240.54
832 ; 198.43
836 ; 217.59
840 ; 225.44
844 ; 252.08
848 ; 206.23
852 ; 233.32
856 ; 209.13
860 ; 224.06
864 ; 217.73
868 ; 214.68
872 ; 218.11
876 ; 210.31
880 ; 248.47
884 ; 216.27
888 ; 224.81
892 ; 230.39
896 ; 236.32
900 ; 233.16
904 ; 217.91
908 ; 218.87
912 ; 238.20
916 ; 250.91
920 ; 232.16
924 ; 236.11
928 ; 211.71
932 ; 250.52
936 ; 241.70
940 ; 240.97
944 ; 235.50
948 ; 210.02
952 ; 225.88
956 ; 230.46
960 ; 238.90
964 ; 232.53
968 ; 245.81
972 ; 270.87
976 ; 265.94
980 ; 237.24
984 ; 240.02
988 ; 233.17
992 ; 264.46
996 ; 240.03
1000 ; 274.15
1004 ; 260.43
1008 ; 260.63
1012 ; 274.33
1016 ; 279.95
1020 ; 270.17
1024 ; 318.04
1028 ; 336.08
1032 ; 398.09
1036 ; 470.61
1040 ; 537.41
1044 ; 700.75
1048 ; 1361.55
1052 ; 5591.84
1056 ; 12363.45
1060 ; 9730.00
1064 ; 3274.69
1068 ; 1489.90
1072 ; 796.00
1076 ; 522.15
1080 ; 462.55
1084 ; 394.52
1088 ; 342.17
1092 ; 313.66
1096 ; 334.90
1100 ; 334.73
1104 ; 285.42
1108 ; 285.83
1112 ; 283.37
1116 ; 273.79
1120 ; 317.51
1124 ; 325.49
1128 ; 328.60
1132 ; 273.43
1136 ; 285.40
1140 ; 301.60
1144 ; 240.57
1148 ; 251.47
1152 ; 252.79
1156 ; 254.50
1160 ; 237.94
1164 ; 214.50
1168 ; 213.76
1172 ; 275.55
1176 ; 247.21
1180 ; 232.31
1184 ; 222.44
1188 ; 265.32
1192 ; 227.01
1196 ; 256.18
1200 ; 215.96
1204 ; 222.79
1208 ; 233.66
1212 ; 217.15
1216 ; 231.33
1220 ; 217.13
1224 ; 261.82
1228 ; 224.04
1232 ; 199.32
1236 ; 232.24
1240 ; 233.79
1244 ; 255.36
1248 ; 222.09
1252 ; 192.03
1256 ; 237.43
1260 ; 222.01
1264 ; 226.61
1268 ; 236.98
1272 ; 217.32
1276 ; 258.71
1280 ; 223.13
1284 ; 255.40
1288 ; 319.03
1292 ; 358.38
1296 ; 335.85
1300 ; 281.26
1304 ; 302.39
1308 ; 297.76
1312 ; 317.22
1316 ; 316.22
1320 ; 317.85
1324 ; 316.99
1328 ; 327.98
1332 ; 303.72
1336 ; 329.56
1340 ; 375.18
1344 ; 399.45
1348 ; 429.58
1352 ; 467.02
1356 ; 453.61
1360 ; 436.92
1364 ; 442.06
1368 ; 449.86
1372 ; 425.90
1376 ; 416.57
1380 ; 336.58
1384 ; 340.24
1388 ; 355.98
1392 ; 350.09
1396 ; 332.72
1400 ; 373.90
1404 ; 386.80
1408 ; 399.64
1412 ; 409.50
1416 ; 464.22
1420 ; 550.37
1424 ; 638.45
1428 ; 721.13
1432 ; 810.68
1436 ; 766.19
1440 ; 726.42
1444 ; 542.86
1448 ; 518.71
1452 ; 473.43
1456 ; 416.45
1460 ; 383.09
1464 ; 344.13
1468 ; 377.74
1472 ; 323.69
1476 ; 293.57
1480 ; 283.04
1484 ; 377.48
1488 ; 260.27
1492 ; 259.17
1496 ; 299.41
1500 ; 311.12
1504 ; 277.98
1508 ; 230.92
1512 ; 205.73
1516 ; 272.30
1520 ; 252.79
1524 ; 239.21
1528 ; 247.71
1532 ; 271.10
1536 ; 249.93
1540 ; 175.87
1544 ; 259.71
1548 ; 324.08
1552 ; 228.85
1556 ; 245.76
1560 ; 254.34
1564 ; 217.42
1568 ; 265.25
1572 ; 311.79
1576 ; 263.73
1580 ; 257.06
1584 ; 242.86
1588 ; 257.85
1592 ; 276.32
1596 ; 247.72
1600 ; 225.39
1604 ; 294.64
1608 ; 243.82
1612 ; 258.49
1616 ; 282.17
1620 ; 328.49
1624 ; 251.11
1628 ; 234.43
1632 ; 278.26
1636 ; 421.72
1640 ; 303.63
1644 ; 357.87
1648 ; 402.66
1652 ; 523.14
1656 ; 419.45
1660 ; 464.50
1664 ; 383.61
1668 ; 383.44
1672 ; 301.17
1676 ; 288.71
1680 ; 363.96
1684 ; 281.85
1688 ; 239.69
1692 ; 233.73
1696 ; 328.75
1700 ; 275.19
1704 ; 249.25
1708 ; 281.18
1712 ; 227.68
1716 ; 302.61
1720 ; 302.71
1724 ; 371.81
1728 ; 261.71
1732 ; 279.57
1736 ; 240.09
1740 ; 212.87
1744 ; 298.18
1748 ; 309.12
1752 ; 243.34
1756 ; 285.33
1760 ; 223.83
1764 ; 319.31
1768 ; 226.17
1772 ; 253.40
1776 ; 263.63
1780 ; 297.23
1784 ; 247.84
1788 ; 217.25
1792 ; 318.05
1796 ; 315.31
1800 ; 292.01
1804 ; 315.85
1808 ; 250.60
1812 ; 276.63
1816 ; 204.46
1820 ; 429.72
1824 ; 301.34
1828 ; 316.35
1832 ; 329.42
1836 ; 270.02
1840 ; 371.93
1844 ; 379.63
1848 ; 211.04
1852 ; 237.09
1856 ; 388.13
1860 ; 284.04
1864 ; 254.28
1868 ; 303.22
1872 ; 329.76
1876 ; 359.01
1880 ; 349.48
1884 ; 376.05
1888 ; 299.45
1892 ; 381.30
1896 ; 374.56
1900 ; 330.41
1904 ; 292.34
1908 ; 265.64
1912 ; 291.35
1916 ; 262.54
1920 ; 310.55
1924 ; 392.40
1928 ; 242.53
1932 ; 318.61
1936 ; 440.50
1940 ; 419.60
1944 ; 391.32
1948 ; 362.34
1952 ; 328.70
1956 ; 222.43
1960 ; 409.73
1964 ; 436.92
1968 ; 188.93
1972 ; 306.37
1976 ; 384.33
1980 ; 310.28
1984 ; 453.03
1988 ; 587.60
1992 ; 282.56
1996 ; 173.48
2000 ; 337.74
2004 ; 272.02
2008 ; 356.59
2012 ; 363.14
2016 ; 448.35
2020 ; 392.41
2024 ; 452.31
2028 ; 286.66
2032 ; 203.85
2036 ; 408.45
2040 ; 317.92
2044 ; 326.91
2048 ; 378.22
2052 ; 373.46
2056 ; 311.47
2060 ; 438.23
2064 ; 357.15
2068 ; 322.97
2072 ; 437.10
2076 ; 400.27
2080 ; 380.32
2084 ; 334.54
2088 ; 434.47
2092 ; 345.18
2096 ; 532.25
2100 ; 241.92
2104 ; 399.94
2108 ; 399.99
2112 ; 381.53
2116 ; 264.17
2120 ; 473.56
2124 ; 242.01
2128 ; 347.19
2132 ; 489.66
2136 ; 350.74
2140 ; 442.00
2144 ; 470.80
2148 ; 396.47
2152 ; 489.93
2156 ; 554.30
2160 ; 348.44
2164 ; 685.63
2168 ; 483.52
2172 ; 413.00
2176 ; 247.75
2180 ; 560.94
2184 ; 289.20
2188 ; 627.04
2192 ; 535.43
2196 ; 189.56
2200 ; 523.56
2204 ; 470.00
2208 ; 394.72
2212 ; 771.15
2216 ; 588.16
2220 ; 541.83
2224 ; 701.88
2228 ; 484.60
2232 ; 529.50
2236 ; 594.17
2240 ; 256.21
2244 ; 550.35
2248 ; 465.27
2252 ; 722.67
2256 ; 425.38
2260 ; 570.70
2264 ; 475.50
2268 ; 556.38
2272 ; 404.56
2276 ; 500.01
2280 ; 433.40
2284 ; 491.97
2288 ; 718.08
2292 ; 604.85
2296 ; 493.39
2300 ; 659.82
2304 ; 399.80
2308 ; 447.05
2312 ; 658.80
2316 ; 534.64
2320 ; 358.51
2324 ; 349.60
2328 ; 528.24
2332 ; 947.81
2336 ; 606.98
2340 ; 662.25
2344 ; 701.41
2348 ; 585.90
2352 ; 640.62
2356 ; 501.34
2360 ; 619.77
2364 ; 561.14
2368 ; 733.80
2372 ; 748.14
2376 ; 334.06
2380 ; 627.45
2384 ; 842.43
2388 ; 411.87
2392 ; 607.66
2396 ; 477.58
2400 ; 675.88
2404 ; 743.96
2408 ; 613.98
2412 ; 774.74
2416 ; 705.46
2420 ; 258.58
2424 ; 952.35
2428 ; 422.27
2432 ; 824.64
2436 ; 650.48
2440 ; 682.55
2444 ; 804.25
2448 ; 524.66
2452 ; 686.86
2456 ; 660.38
2460 ; 531.76
2464 ; 928.96
2468 ; 842.44
2472 ; 1009.26
2476 ; 485.23
2480 ; 1433.79
2484 ; 609.16
2488 ; 934.21
2492 ; 1228.74
2496 ; 800.55
2500 ; 729.06
